*RAS_DATA_START
*RAS_HEADER_START
*DISP_FMT_X "%.2f"
*DISP_FMT_Y "%.0f"
*DISP_FULLSCALE "2658.0000000000"
*DISP_LINE_COLOR "255.0000000000"
*DISP_LINE_STYLE "0.0000000000"
*DISP_LINE_WIDTH "0.2500000000"
*DISP_NOTE "測定データ-1"
*DISP_OFFSET_Y "0.0000000000"
*DISP_PEAKSEARCH_UNIT_Y "cps"
*DISP_RANGE_BOTTOM "0.0000000000"
*DISP_RANGE_LEFT "10.0000000000"
*DISP_RANGE_LOGCUTOFF "0.0100000000"
*DISP_RANGE_RIGHT "70.0000000000"
*DISP_RANGE_TOP "2658.0000000000"
*DISP_SCALE_MODE_Y "0.0000000000"
*DISP_TAB_NAME "2θ/θ"
*DISP_TITLE_Y "強度"
*DISP_UNIT_Y "cps"
*DISP_WINDOW_NAME "MSG_MACROENGINE"
*FILE_COMMENT " "
*FILE_MD5 ""
*FILE_MEMO " "
*FILE_OPERATOR "Administrator"
*FILE_SAMPLE " "
*FILE_TYPE "RAS_RAW"
*FILE_USERGROUP "システムマネージャ"
*FILE_VERSION "1.0000000000"
*HW_ATTACHMENT_ID "ATT1025"
*HW_ATTACHMENT_NAME "標準試料台|Standard Sample Holder"
*HW_COUNTER_ID-0 "CUT0021"
*HW_COUNTER_ID-1 "CUT0020"
*HW_COUNTER_ID-2 "CUT0020"
*HW_COUNTER_ID-3 "CMC0021"
*HW_COUNTER_NAME-0 "SC-70|SC-70"
*HW_COUNTER_NAME-1 "None|None"
*HW_COUNTER_NAME-2 "None|None"
*HW_COUNTER_NAME-3 "検出器モノクロメータ|Detector monochromator"
*HW_COUNTER_SELECT_NAME "SC-70|SC-70"
*HW_ECP_HV "641.5000000000"
*HW_ECP_HV_UNIT "V"
*HW_GONIOMETER_ID "GON0070"
*HW_GONIOMETER_NAME "MiniFlex 300/600|MiniFlex 300/600"
*HW_GONIOMETER_RADIUS-0 "79.0"
*HW_GONIOMETER_RADIUS-1 "91.5"
*HW_GONIOMETER_RADIUS-2 "150.0"
*HW_GONIOMETER_RADIUS-3 "0"
*HW_GONIOMETER_RADIUS-4 "103.4"
*HW_GONIOMETER_RADIUS-5 "150.0"
*HW_GONIOMETER_RADIUS-6 "46.6"
*HW_GONIOMETER_RADIUS-7 "160.0"
*HW_I_OPT_ID-0 "ISL0021"
*HW_I_OPT_ID-1 "ISO0021"
*HW_I_OPT_NAME-0 "発散スリット|Divergence slit"
*HW_I_OPT_NAME-1 "入射平行スリット|Incident parallel slit"
*HW_R_ATTENUATER_AUTOMODE "0"
*HW_R_OPT_ID-0 "RSS0021"
*HW_R_OPT_ID-1 "RSO0021"
*HW_R_OPT_ID-2 "RRS0021"
*HW_R_OPT_NAME-0 "散乱スリット|Scattering slit"
*HW_R_OPT_NAME-1 "受光平行スリット|Receiving soller slit"
*HW_R_OPT_NAME-2 "受光スリット|Receiving slit"
*HW_SAMPLE_HOLDER_ID "SMP0000"
*HW_SAMPLE_HOLDER_NAME "無し|None"
*HW_XG_CURRENT_MAX "15"
*HW_XG_CURRENT_MIN "2"
*HW_XG_CURRENT_RESOLUTION "1"
*HW_XG_CURRENT_UNIT "mA"
*HW_XG_FOCUS "1mm x 10mm"
*HW_XG_FOCUS_TYPE "Normal"
*HW_XG_ID ""
*HW_XG_NAME "300W/600W 封入管-A|300W/600W Sealed tube-A"
*HW_XG_TARGET_ATOMIC_NUMBER "29.0000000000"
*HW_XG_TARGET_NAME "Cu"
*HW_XG_TYPE "Hermetic"
*HW_XG_VOLTAGE_MAX "40"
*HW_XG_VOLTAGE_MIN "20"
*HW_XG_VOLTAGE_RESOLUTION "1"
*HW_XG_VOLTAGE_UNIT "kV"
*HW_XG_WATT_MAX "1"
*HW_XG_WATT_UNIT "kW"
*HW_XG_WAVE_LENGTH_ALPHA1 "1.540593"
*HW_XG_WAVE_LENGTH_ALPHA2 "1.544414"
*HW_XG_WAVE_LENGTH_BETA "1.392250"
*MEAS_COND_AXIS_NAME-0 "2θ/θ"
*MEAS_COND_AXIS_NAME-1 "Soller(inc.)"
*MEAS_COND_AXIS_NAME-2 "IHS"
*MEAS_COND_AXIS_NAME-3 "DS"
*MEAS_COND_AXIS_NAME-4 "SS"
*MEAS_COND_AXIS_NAME-5 "Soller(rec.)"
*MEAS_COND_AXIS_NAME-6 "RS"
*MEAS_COND_AXIS_NAME-7 "フィルター"
*MEAS_COND_AXIS_NAME-8 "モノクロメータ"
*MEAS_COND_AXIS_NAME-9 "HV"
*MEAS_COND_AXIS_NAME-10 "PHA"
*MEAS_COND_AXIS_NAME_INTERNAL-0 "TwoThetaTheta"
*MEAS_COND_AXIS_NAME_INTERNAL-1 "IncidentSollerSlit"
*MEAS_COND_AXIS_NAME_INTERNAL-2 "IncidentAxdSlit"
*MEAS_COND_AXIS_NAME_INTERNAL-3 "IncidentSlitBox"
*MEAS_COND_AXIS_NAME_INTERNAL-4 "ReceivingSlitBox1"
*MEAS_COND_AXIS_NAME_INTERNAL-5 "ReceivingSollerSlit"
*MEAS_COND_AXIS_NAME_INTERNAL-6 "ReceivingSlitBox2"
*MEAS_COND_AXIS_NAME_INTERNAL-7 "Filter"
*MEAS_COND_AXIS_NAME_INTERNAL-8 "CounterMonochromator"
*MEAS_COND_AXIS_NAME_INTERNAL-9 "HV"
*MEAS_COND_AXIS_NAME_INTERNAL-10 "PHA"
*MEAS_COND_AXIS_NAME_MAGICNO-0 "268632064.0000000000"
*MEAS_COND_AXIS_NAME_MAGICNO-1 "20971521.0000000000"
*MEAS_COND_AXIS_NAME_MAGICNO-2 "22020097.0000000000"
*MEAS_COND_AXIS_NAME_MAGICNO-3 "22020097.0000000000"
*MEAS_COND_AXIS_NAME_MAGICNO-4 "23068673.0000000000"
*MEAS_COND_AXIS_NAME_MAGICNO-5 "20971521.0000000000"
*MEAS_COND_AXIS_NAME_MAGICNO-6 "23068673.0000000000"
*MEAS_COND_AXIS_NAME_MAGICNO-7 "20971521.0000000000"
*MEAS_COND_AXIS_NAME_MAGICNO-8 "20971521.0000000000"
*MEAS_COND_AXIS_NAME_MAGICNO-9 "0.0000000000"
*MEAS_COND_AXIS_NAME_MAGICNO-10 "0.0000000000"
*MEAS_COND_AXIS_OFFSET-0 "0.0000000000"
*MEAS_COND_AXIS_OFFSET-1 "-"
*MEAS_COND_AXIS_OFFSET-2 "-"
*MEAS_COND_AXIS_OFFSET-3 "-"
*MEAS_COND_AXIS_OFFSET-4 "-"
*MEAS_COND_AXIS_OFFSET-5 "-"
*MEAS_COND_AXIS_OFFSET-6 "-"
*MEAS_COND_AXIS_OFFSET-7 "-"
*MEAS_COND_AXIS_OFFSET-8 "-"
*MEAS_COND_AXIS_OFFSET-9 "-"
*MEAS_COND_AXIS_OFFSET-10 "-"
*MEAS_COND_AXIS_POSITION-0 "10.0000000000"
*MEAS_COND_AXIS_POSITION-1 "5.0deg"
*MEAS_COND_AXIS_POSITION-2 "10.0mm"
*MEAS_COND_AXIS_POSITION-3 "1.250deg"
*MEAS_COND_AXIS_POSITION-4 "1.250deg"
*MEAS_COND_AXIS_POSITION-5 "5.0deg"
*MEAS_COND_AXIS_POSITION-6 "0.3mm"
*MEAS_COND_AXIS_POSITION-7 "None"
*MEAS_COND_AXIS_POSITION-8 "Bent"
*MEAS_COND_AXIS_POSITION-9 "641.5000000000"
*MEAS_COND_AXIS_POSITION-10 "566.2500000000"
*MEAS_COND_AXIS_UNIT-0 "deg"
*MEAS_COND_AXIS_UNIT-1 ""
*MEAS_COND_AXIS_UNIT-2 ""
*MEAS_COND_AXIS_UNIT-3 ""
*MEAS_COND_AXIS_UNIT-4 ""
*MEAS_COND_AXIS_UNIT-5 ""
*MEAS_COND_AXIS_UNIT-6 ""
*MEAS_COND_AXIS_UNIT-7 ""
*MEAS_COND_AXIS_UNIT-8 ""
*MEAS_COND_AXIS_UNIT-9 "V"
*MEAS_COND_AXIS_UNIT-10 "mV"
*MEAS_COND_COUNTER_CNTLOSS_CORR "0.0000000000"
*MEAS_COND_COUNTER_PHABASE "566.2500000000"
*MEAS_COND_COUNTER_PHAWINDOW "878.7500000000"
*MEAS_COND_COUNTER_PHA_UNIT "mV"
*MEAS_COND_COUNTER_TAUDIFF "0.2500000000"
*MEAS_COND_COUNTER_TAUINT "0.7500000000"
*MEAS_COND_IRRADIATION_MODE "OFF"
*MEAS_COND_IRRADIATION_WIDTH ""
*MEAS_COND_OPT_ATTR " "
*MEAS_COND_OPT_NAME ""
*MEAS_COND_UNSYMMETRIC_MODE "OFF"
*MEAS_COND_XG_CURRENT "15.0000000000"
*MEAS_COND_XG_VOLTAGE "40.0000000000"
*MEAS_COND_XG_WAVE_TYPE "Ka"
*MEAS_DATA_COUNT "3001.0000000000"
*MEAS_SCAN_AXIS_X "2θ/θ"
*MEAS_SCAN_AXIS_X_INTERNAL "TwoThetaTheta"
*MEAS_SCAN_END_TIME "10/02/20 13:04:06"
*MEAS_SCAN_MODE "CONTINUOUS"
*MEAS_SCAN_MONITOR "0"
*MEAS_SCAN_RESOLUTION_X "0.0025"
*MEAS_SCAN_SPEED "2.0000"
*MEAS_SCAN_SPEED_UNIT "deg/min"
*MEAS_SCAN_START "10.0000000000"
*MEAS_SCAN_START_TIME "10/02/20 12:33:56"
*MEAS_SCAN_STEP "0.0200000000"
*MEAS_SCAN_STOP "70.0000000000"
*MEAS_SCAN_UNIT_X "deg"
*MEAS_SCAN_UNIT_Y "counts"
*SLIT_SYSTEM "0"
*RAS_HEADER_END
*RAS_INT_START
10.0000 40.0000 1.0000
10.0200 52.0000 1.0000
10.0400 57.0000 1.0000
10.0600 48.0000 1.0000
10.0800 52.0000 1.0000
10.1000 46.0000 1.0000
10.1200 52.0000 1.0000
10.1400 54.0000 1.0000
10.1600 52.0000 1.0000
10.1800 47.0000 1.0000
10.2000 57.0000 1.0000
10.2200 48.0000 1.0000
10.2400 53.0000 1.0000
10.2600 51.0000 1.0000
10.2800 59.0000 1.0000
10.3000 50.0000 1.0000
10.3200 52.0000 1.0000
10.3400 51.0000 1.0000
10.3600 43.0000 1.0000
10.3800 53.0000 1.0000
10.4000 60.0000 1.0000
10.4200 45.0000 1.0000
10.4400 43.0000 1.0000
10.4600 50.0000 1.0000
10.4800 57.0000 1.0000
10.5000 45.0000 1.0000
10.5200 46.0000 1.0000
10.5400 56.0000 1.0000
10.5600 55.0000 1.0000
10.5800 50.0000 1.0000
10.6000 38.0000 1.0000
10.6200 48.0000 1.0000
10.6400 65.0000 1.0000
10.6600 50.0000 1.0000
10.6800 52.0000 1.0000
10.7000 56.0000 1.0000
10.7200 56.0000 1.0000
10.7400 70.0000 1.0000
10.7600 57.0000 1.0000
10.7800 45.0000 1.0000
10.8000 45.0000 1.0000
10.8200 40.0000 1.0000
10.8400 46.0000 1.0000
10.8600 46.0000 1.0000
10.8800 49.0000 1.0000
10.9000 53.0000 1.0000
10.9200 55.0000 1.0000
10.9400 50.0000 1.0000
10.9600 42.0000 1.0000
10.9800 52.0000 1.0000
11.0000 54.0000 1.0000
11.0200 46.0000 1.0000
11.0400 48.0000 1.0000
11.0600 54.0000 1.0000
11.0800 61.0000 1.0000
11.1000 45.0000 1.0000
11.1200 58.0000 1.0000
11.1400 56.0000 1.0000
11.1600 59.0000 1.0000
11.1800 47.0000 1.0000
11.2000 54.0000 1.0000
11.2200 64.0000 1.0000
11.2400 61.0000 1.0000
11.2600 32.0000 1.0000
11.2800 52.0000 1.0000
11.3000 40.0000 1.0000
11.3200 45.0000 1.0000
11.3400 43.0000 1.0000
11.3600 57.0000 1.0000
11.3800 48.0000 1.0000
11.4000 45.0000 1.0000
11.4200 42.0000 1.0000
11.4400 41.0000 1.0000
11.4600 61.0000 1.0000
11.4800 56.0000 1.0000
11.5000 54.0000 1.0000
11.5200 50.0000 1.0000
11.5400 61.0000 1.0000
11.5600 50.0000 1.0000
11.5800 52.0000 1.0000
11.6000 47.0000 1.0000
11.6200 50.0000 1.0000
11.6400 56.0000 1.0000
11.6600 60.0000 1.0000
11.6800 52.0000 1.0000
11.7000 52.0000 1.0000
11.7200 51.0000 1.0000
11.7400 42.0000 1.0000
11.7600 44.0000 1.0000
11.7800 43.0000 1.0000
11.8000 46.0000 1.0000
11.8200 60.0000 1.0000
11.8400 48.0000 1.0000
11.8600 46.0000 1.0000
11.8800 71.0000 1.0000
11.9000 47.0000 1.0000
11.9200 41.0000 1.0000
11.9400 48.0000 1.0000
11.9600 48.0000 1.0000
11.9800 55.0000 1.0000
12.0000 48.0000 1.0000
12.0200 51.0000 1.0000
12.0400 52.0000 1.0000
12.0600 61.0000 1.0000
12.0800 46.0000 1.0000
12.1000 59.0000 1.0000
12.1200 45.0000 1.0000
12.1400 40.0000 1.0000
12.1600 51.0000 1.0000
12.1800 49.0000 1.0000
12.2000 53.0000 1.0000
12.2200 54.0000 1.0000
12.2400 50.0000 1.0000
12.2600 52.0000 1.0000
12.2800 55.0000 1.0000
12.3000 63.0000 1.0000
12.3200 61.0000 1.0000
12.3400 51.0000 1.0000
12.3600 52.0000 1.0000
12.3800 62.0000 1.0000
12.4000 57.0000 1.0000
12.4200 39.0000 1.0000
12.4400 45.0000 1.0000
12.4600 67.0000 1.0000
12.4800 44.0000 1.0000
12.5000 43.0000 1.0000
12.5200 47.0000 1.0000
12.5400 57.0000 1.0000
12.5600 42.0000 1.0000
12.5800 53.0000 1.0000
12.6000 57.0000 1.0000
12.6200 48.0000 1.0000
12.6400 49.0000 1.0000
12.6600 47.0000 1.0000
12.6800 57.0000 1.0000
12.7000 56.0000 1.0000
12.7200 53.0000 1.0000
12.7400 71.0000 1.0000
12.7600 47.0000 1.0000
12.7800 50.0000 1.0000
12.8000 50.0000 1.0000
12.8200 58.0000 1.0000
12.8400 52.0000 1.0000
12.8600 55.0000 1.0000
12.8800 55.0000 1.0000
12.9000 50.0000 1.0000
12.9200 61.0000 1.0000
12.9400 52.0000 1.0000
12.9600 54.0000 1.0000
12.9800 57.0000 1.0000
13.0000 41.0000 1.0000
13.0200 66.0000 1.0000
13.0400 53.0000 1.0000
13.0600 43.0000 1.0000
13.0800 48.0000 1.0000
13.1000 58.0000 1.0000
13.1200 49.0000 1.0000
13.1400 63.0000 1.0000
13.1600 64.0000 1.0000
13.1800 47.0000 1.0000
13.2000 31.0000 1.0000
13.2200 60.0000 1.0000
13.2400 44.0000 1.0000
13.2600 53.0000 1.0000
13.2800 54.0000 1.0000
13.3000 67.0000 1.0000
13.3200 71.0000 1.0000
13.3400 67.0000 1.0000
13.3600 62.0000 1.0000
13.3800 53.0000 1.0000
13.4000 43.0000 1.0000
13.4200 65.0000 1.0000
13.4400 57.0000 1.0000
13.4600 66.0000 1.0000
13.4800 65.0000 1.0000
13.5000 45.0000 1.0000
13.5200 63.0000 1.0000
13.5400 64.0000 1.0000
13.5600 66.0000 1.0000
13.5800 50.0000 1.0000
13.6000 66.0000 1.0000
13.6200 71.0000 1.0000
13.6400 61.0000 1.0000
13.6600 64.0000 1.0000
13.6800 60.0000 1.0000
13.7000 54.0000 1.0000
13.7200 51.0000 1.0000
13.7400 57.0000 1.0000
13.7600 63.0000 1.0000
13.7800 59.0000 1.0000
13.8000 61.0000 1.0000
13.8200 71.0000 1.0000
13.8400 46.0000 1.0000
13.8600 73.0000 1.0000
13.8800 59.0000 1.0000
13.9000 59.0000 1.0000
13.9200 65.0000 1.0000
13.9400 58.0000 1.0000
13.9600 64.0000 1.0000
13.9800 60.0000 1.0000
14.0000 52.0000 1.0000
14.0200 69.0000 1.0000
14.0400 56.0000 1.0000
14.0600 55.0000 1.0000
14.0800 54.0000 1.0000
14.1000 61.0000 1.0000
14.1200 64.0000 1.0000
14.1400 55.0000 1.0000
14.1600 58.0000 1.0000
14.1800 58.0000 1.0000
14.2000 67.0000 1.0000
14.2200 54.0000 1.0000
14.2400 52.0000 1.0000
14.2600 55.0000 1.0000
14.2800 67.0000 1.0000
14.3000 55.0000 1.0000
14.3200 84.0000 1.0000
14.3400 50.0000 1.0000
14.3600 55.0000 1.0000
14.3800 75.0000 1.0000
14.4000 48.0000 1.0000
14.4200 52.0000 1.0000
14.4400 57.0000 1.0000
14.4600 62.0000 1.0000
14.4800 50.0000 1.0000
14.5000 60.0000 1.0000
14.5200 74.0000 1.0000
14.5400 49.0000 1.0000
14.5600 51.0000 1.0000
14.5800 66.0000 1.0000
14.6000 40.0000 1.0000
14.6200 55.0000 1.0000
14.6400 47.0000 1.0000
14.6600 62.0000 1.0000
14.6800 59.0000 1.0000
14.7000 57.0000 1.0000
14.7200 60.0000 1.0000
14.7400 66.0000 1.0000
14.7600 43.0000 1.0000
14.7800 71.0000 1.0000
14.8000 60.0000 1.0000
14.8200 56.0000 1.0000
14.8400 48.0000 1.0000
14.8600 66.0000 1.0000
14.8800 50.0000 1.0000
14.9000 64.0000 1.0000
14.9200 62.0000 1.0000
14.9400 64.0000 1.0000
14.9600 54.0000 1.0000
14.9800 63.0000 1.0000
15.0000 54.0000 1.0000
15.0200 52.0000 1.0000
15.0400 64.0000 1.0000
15.0600 68.0000 1.0000
15.0800 63.0000 1.0000
15.1000 57.0000 1.0000
15.1200 52.0000 1.0000
15.1400 58.0000 1.0000
15.1600 63.0000 1.0000
15.1800 64.0000 1.0000
15.2000 57.0000 1.0000
15.2200 67.0000 1.0000
15.2400 60.0000 1.0000
15.2600 56.0000 1.0000
15.2800 53.0000 1.0000
15.3000 66.0000 1.0000
15.3200 58.0000 1.0000
15.3400 59.0000 1.0000
15.3600 59.0000 1.0000
15.3800 68.0000 1.0000
15.4000 53.0000 1.0000
15.4200 54.0000 1.0000
15.4400 52.0000 1.0000
15.4600 72.0000 1.0000
15.4800 72.0000 1.0000
15.5000 51.0000 1.0000
15.5200 66.0000 1.0000
15.5400 57.0000 1.0000
15.5600 73.0000 1.0000
15.5800 62.0000 1.0000
15.6000 65.0000 1.0000
15.6200 58.0000 1.0000
15.6400 62.0000 1.0000
15.6600 59.0000 1.0000
15.6800 59.0000 1.0000
15.7000 73.0000 1.0000
15.7200 68.0000 1.0000
15.7400 72.0000 1.0000
15.7600 64.0000 1.0000
15.7800 49.0000 1.0000
15.8000 78.0000 1.0000
15.8200 47.0000 1.0000
15.8400 65.0000 1.0000
15.8600 42.0000 1.0000
15.8800 60.0000 1.0000
15.9000 58.0000 1.0000
15.9200 72.0000 1.0000
15.9400 64.0000 1.0000
15.9600 71.0000 1.0000
15.9800 53.0000 1.0000
16.0000 67.0000 1.0000
16.0200 76.0000 1.0000
16.0400 67.0000 1.0000
16.0600 59.0000 1.0000
16.0800 64.0000 1.0000
16.1000 65.0000 1.0000
16.1200 65.0000 1.0000
16.1400 77.0000 1.0000
16.1600 66.0000 1.0000
16.1800 60.0000 1.0000
16.2000 71.0000 1.0000
16.2200 52.0000 1.0000
16.2400 81.0000 1.0000
16.2600 59.0000 1.0000
16.2800 72.0000 1.0000
16.3000 61.0000 1.0000
16.3200 70.0000 1.0000
16.3400 64.0000 1.0000
16.3600 88.0000 1.0000
16.3800 68.0000 1.0000
16.4000 78.0000 1.0000
16.4200 60.0000 1.0000
16.4400 70.0000 1.0000
16.4600 79.0000 1.0000
16.4800 63.0000 1.0000
16.5000 71.0000 1.0000
16.5200 60.0000 1.0000
16.5400 80.0000 1.0000
16.5600 84.0000 1.0000
16.5800 60.0000 1.0000
16.6000 66.0000 1.0000
16.6200 63.0000 1.0000
16.6400 62.0000 1.0000
16.6600 86.0000 1.0000
16.6800 71.0000 1.0000
16.7000 83.0000 1.0000
16.7200 75.0000 1.0000
16.7400 66.0000 1.0000
16.7600 75.0000 1.0000
16.7800 64.0000 1.0000
16.8000 72.0000 1.0000
16.8200 57.0000 1.0000
16.8400 68.0000 1.0000
16.8600 78.0000 1.0000
16.8800 78.0000 1.0000
16.9000 51.0000 1.0000
16.9200 63.0000 1.0000
16.9400 74.0000 1.0000
16.9600 62.0000 1.0000
16.9800 69.0000 1.0000
17.0000 74.0000 1.0000
17.0200 78.0000 1.0000
17.0400 82.0000 1.0000
17.0600 67.0000 1.0000
17.0800 74.0000 1.0000
17.1000 53.0000 1.0000
17.1200 91.0000 1.0000
17.1400 76.0000 1.0000
17.1600 89.0000 1.0000
17.1800 69.0000 1.0000
17.2000 90.0000 1.0000
17.2200 64.0000 1.0000
17.2400 76.0000 1.0000
17.2600 67.0000 1.0000
17.2800 87.0000 1.0000
17.3000 55.0000 1.0000
17.3200 69.0000 1.0000
17.3400 78.0000 1.0000
17.3600 89.0000 1.0000
17.3800 61.0000 1.0000
17.4000 77.0000 1.0000
17.4200 69.0000 1.0000
17.4400 83.0000 1.0000
17.4600 78.0000 1.0000
17.4800 73.0000 1.0000
17.5000 63.0000 1.0000
17.5200 81.0000 1.0000
17.5400 78.0000 1.0000
17.5600 75.0000 1.0000
17.5800 69.0000 1.0000
17.6000 79.0000 1.0000
17.6200 56.0000 1.0000
17.6400 83.0000 1.0000
17.6600 77.0000 1.0000
17.6800 85.0000 1.0000
17.7000 70.0000 1.0000
17.7200 93.0000 1.0000
17.7400 87.0000 1.0000
17.7600 69.0000 1.0000
17.7800 58.0000 1.0000
17.8000 85.0000 1.0000
17.8200 77.0000 1.0000
17.8400 79.0000 1.0000
17.8600 69.0000 1.0000
17.8800 80.0000 1.0000
17.9000 77.0000 1.0000
17.9200 84.0000 1.0000
17.9400 74.0000 1.0000
17.9600 77.0000 1.0000
17.9800 66.0000 1.0000
18.0000 100.0000 1.0000
18.0200 74.0000 1.0000
18.0400 78.0000 1.0000
18.0600 69.0000 1.0000
18.0800 75.0000 1.0000
18.1000 72.0000 1.0000
18.1200 64.0000 1.0000
18.1400 71.0000 1.0000
18.1600 80.0000 1.0000
18.1800 84.0000 1.0000
18.2000 82.0000 1.0000
18.2200 78.0000 1.0000
18.2400 85.0000 1.0000
18.2600 94.0000 1.0000
18.2800 69.0000 1.0000
18.3000 78.0000 1.0000
18.3200 59.0000 1.0000
18.3400 71.0000 1.0000
18.3600 70.0000 1.0000
18.3800 75.0000 1.0000
18.4000 80.0000 1.0000
18.4200 69.0000 1.0000
18.4400 78.0000 1.0000
18.4600 98.0000 1.0000
18.4800 84.0000 1.0000
18.5000 80.0000 1.0000
18.5200 82.0000 1.0000
18.5400 89.0000 1.0000
18.5600 67.0000 1.0000
18.5800 72.0000 1.0000
18.6000 78.0000 1.0000
18.6200 72.0000 1.0000
18.6400 61.0000 1.0000
18.6600 87.0000 1.0000
18.6800 91.0000 1.0000
18.7000 70.0000 1.0000
18.7200 88.0000 1.0000
18.7400 79.0000 1.0000
18.7600 88.0000 1.0000
18.7800 70.0000 1.0000
18.8000 65.0000 1.0000
18.8200 80.0000 1.0000
18.8400 105.0000 1.0000
18.8600 89.0000 1.0000
18.8800 71.0000 1.0000
18.9000 88.0000 1.0000
18.9200 90.0000 1.0000
18.9400 78.0000 1.0000
18.9600 77.0000 1.0000
18.9800 96.0000 1.0000
19.0000 78.0000 1.0000
19.0200 75.0000 1.0000
19.0400 90.0000 1.0000
19.0600 78.0000 1.0000
19.0800 88.0000 1.0000
19.1000 96.0000 1.0000
19.1200 77.0000 1.0000
19.1400 75.0000 1.0000
19.1600 78.0000 1.0000
19.1800 83.0000 1.0000
19.2000 85.0000 1.0000
19.2200 92.0000 1.0000
19.2400 72.0000 1.0000
19.2600 71.0000 1.0000
19.2800 86.0000 1.0000
19.3000 83.0000 1.0000
19.3200 91.0000 1.0000
19.3400 81.0000 1.0000
19.3600 66.0000 1.0000
19.3800 87.0000 1.0000
19.4000 91.0000 1.0000
19.4200 77.0000 1.0000
19.4400 72.0000 1.0000
19.4600 83.0000 1.0000
19.4800 90.0000 1.0000
19.5000 75.0000 1.0000
19.5200 96.0000 1.0000
19.5400 88.0000 1.0000
19.5600 97.0000 1.0000
19.5800 91.0000 1.0000
19.6000 102.0000 1.0000
19.6200 76.0000 1.0000
19.6400 98.0000 1.0000
19.6600 89.0000 1.0000
19.6800 87.0000 1.0000
19.7000 93.0000 1.0000
19.7200 79.0000 1.0000
19.7400 82.0000 1.0000
19.7600 85.0000 1.0000
19.7800 87.0000 1.0000
19.8000 86.0000 1.0000
19.8200 77.0000 1.0000
19.8400 81.0000 1.0000
19.8600 89.0000 1.0000
19.8800 83.0000 1.0000
19.9000 100.0000 1.0000
19.9200 95.0000 1.0000
19.9400 86.0000 1.0000
19.9600 97.0000 1.0000
19.9800 90.0000 1.0000
20.0000 99.0000 1.0000
20.0200 89.0000 1.0000
20.0400 80.0000 1.0000
20.0600 99.0000 1.0000
20.0800 90.0000 1.0000
20.1000 95.0000 1.0000
20.1200 88.0000 1.0000
20.1400 98.0000 1.0000
20.1600 86.0000 1.0000
20.1800 98.0000 1.0000
20.2000 88.0000 1.0000
20.2200 107.0000 1.0000
20.2400 106.0000 1.0000
20.2600 104.0000 1.0000
20.2800 92.0000 1.0000
20.3000 77.0000 1.0000
20.3200 91.0000 1.0000
20.3400 111.0000 1.0000
20.3600 85.0000 1.0000
20.3800 83.0000 1.0000
20.4000 94.0000 1.0000
20.4200 93.0000 1.0000
20.4400 98.0000 1.0000
20.4600 83.0000 1.0000
20.4800 79.0000 1.0000
20.5000 107.0000 1.0000
20.5200 95.0000 1.0000
20.5400 90.0000 1.0000
20.5600 81.0000 1.0000
20.5800 91.0000 1.0000
20.6000 94.0000 1.0000
20.6200 105.0000 1.0000
20.6400 87.0000 1.0000
20.6600 104.0000 1.0000
20.6800 99.0000 1.0000
20.7000 99.0000 1.0000
20.7200 85.0000 1.0000
20.7400 93.0000 1.0000
20.7600 91.0000 1.0000
20.7800 108.0000 1.0000
20.8000 91.0000 1.0000
20.8200 91.0000 1.0000
20.8400 92.0000 1.0000
20.8600 100.0000 1.0000
20.8800 100.0000 1.0000
20.9000 105.0000 1.0000
20.9200 92.0000 1.0000
20.9400 104.0000 1.0000
20.9600 109.0000 1.0000
20.9800 93.0000 1.0000
21.0000 100.0000 1.0000
21.0200 85.0000 1.0000
21.0400 99.0000 1.0000
21.0600 90.0000 1.0000
21.0800 90.0000 1.0000
21.1000 77.0000 1.0000
21.1200 83.0000 1.0000
21.1400 81.0000 1.0000
21.1600 102.0000 1.0000
21.1800 97.0000 1.0000
21.2000 96.0000 1.0000
21.2200 89.0000 1.0000
21.2400 103.0000 1.0000
21.2600 86.0000 1.0000
21.2800 85.0000 1.0000
21.3000 108.0000 1.0000
21.3200 108.0000 1.0000
21.3400 105.0000 1.0000
21.3600 107.0000 1.0000
21.3800 107.0000 1.0000
21.4000 92.0000 1.0000
21.4200 90.0000 1.0000
21.4400 95.0000 1.0000
21.4600 95.0000 1.0000
21.4800 90.0000 1.0000
21.5000 89.0000 1.0000
21.5200 93.0000 1.0000
21.5400 95.0000 1.0000
21.5600 104.0000 1.0000
21.5800 81.0000 1.0000
21.6000 86.0000 1.0000
21.6200 99.0000 1.0000
21.6400 96.0000 1.0000
21.6600 98.0000 1.0000
21.6800 118.0000 1.0000
21.7000 82.0000 1.0000
21.7200 108.0000 1.0000
21.7400 85.0000 1.0000
21.7600 105.0000 1.0000
21.7800 93.0000 1.0000
21.8000 91.0000 1.0000
21.8200 106.0000 1.0000
21.8400 103.0000 1.0000
21.8600 123.0000 1.0000
21.8800 105.0000 1.0000
21.9000 92.0000 1.0000
21.9200 109.0000 1.0000
21.9400 99.0000 1.0000
21.9600 120.0000 1.0000
21.9800 86.0000 1.0000
22.0000 107.0000 1.0000
22.0200 110.0000 1.0000
22.0400 109.0000 1.0000
22.0600 108.0000 1.0000
22.0800 117.0000 1.0000
