*RAS_DATA_START
*RAS_HEADER_START
*DISP_FMT_X "%.2f"
*DISP_FMT_Y "%.0f"
*DISP_FULLSCALE "3486.0000000000"
*DISP_LINE_COLOR "255.0000000000"
*DISP_LINE_STYLE "0.0000000000"
*DISP_LINE_WIDTH "0.2500000000"
*DISP_NOTE "測定データ-1"
*DISP_OFFSET_Y "0.0000000000"
*DISP_PEAKSEARCH_UNIT_Y "cps"
*DISP_RANGE_BOTTOM "0.0000000000"
*DISP_RANGE_LEFT "5.0000000000"
*DISP_RANGE_LOGCUTOFF "0.0100000000"
*DISP_RANGE_RIGHT "85.0000000000"
*DISP_RANGE_TOP "3486.0000000000"
*DISP_SCALE_MODE_Y "0.0000000000"
*DISP_TAB_NAME "2θ/θ"
*DISP_TITLE_Y "強度"
*DISP_UNIT_Y "cps"
*DISP_WINDOW_NAME "MSG_MACROENGINE"
*FILE_COMMENT " "
*FILE_MD5 ""
*FILE_MEMO " "
*FILE_OPERATOR "Administrator"
*FILE_SAMPLE " "
*FILE_TYPE "RAS_RAW"
*FILE_USERGROUP "システムマネージャ"
*FILE_VERSION "1.0000000000"
*HW_ATTACHMENT_ID "ATT1025"
*HW_ATTACHMENT_NAME "標準試料台|Standard Sample Holder"
*HW_COUNTER_ID-0 "CUT0021"
*HW_COUNTER_ID-1 "CUT0020"
*HW_COUNTER_ID-2 "CUT0020"
*HW_COUNTER_ID-3 "CMC0021"
*HW_COUNTER_NAME-0 "SC-70|SC-70"
*HW_COUNTER_NAME-1 "None|None"
*HW_COUNTER_NAME-2 "None|None"
*HW_COUNTER_NAME-3 "検出器モノクロメータ|Detector monochromator"
*HW_COUNTER_SELECT_NAME "SC-70|SC-70"
*HW_ECP_HV "641.5000000000"
*HW_ECP_HV_UNIT "V"
*HW_GONIOMETER_ID "GON0070"
*HW_GONIOMETER_NAME "MiniFlex 300/600|MiniFlex 300/600"
*HW_GONIOMETER_RADIUS-0 "79.0"
*HW_GONIOMETER_RADIUS-1 "91.5"
*HW_GONIOMETER_RADIUS-2 "150.0"
*HW_GONIOMETER_RADIUS-3 "0"
*HW_GONIOMETER_RADIUS-4 "103.4"
*HW_GONIOMETER_RADIUS-5 "150.0"
*HW_GONIOMETER_RADIUS-6 "46.6"
*HW_GONIOMETER_RADIUS-7 "160.0"
*HW_I_OPT_ID-0 "ISL0021"
*HW_I_OPT_ID-1 "ISO0021"
*HW_I_OPT_NAME-0 "発散スリット|Divergence slit"
*HW_I_OPT_NAME-1 "入射平行スリット|Incident parallel slit"
*HW_R_ATTENUATER_AUTOMODE "0"
*HW_R_OPT_ID-0 "RSS0021"
*HW_R_OPT_ID-1 "RSO0021"
*HW_R_OPT_ID-2 "RRS0021"
*HW_R_OPT_NAME-0 "散乱スリット|Scattering slit"
*HW_R_OPT_NAME-1 "受光平行スリット|Receiving soller slit"
*HW_R_OPT_NAME-2 "受光スリット|Receiving slit"
*HW_SAMPLE_HOLDER_ID "SMP0000"
*HW_SAMPLE_HOLDER_NAME "無し|None"
*HW_XG_CURRENT_MAX "15"
*HW_XG_CURRENT_MIN "2"
*HW_XG_CURRENT_RESOLUTION "1"
*HW_XG_CURRENT_UNIT "mA"
*HW_XG_FOCUS "1mm x 10mm"
*HW_XG_FOCUS_TYPE "Normal"
*HW_XG_ID ""
*HW_XG_NAME "300W/600W 封入管-A|300W/600W Sealed tube-A"
*HW_XG_TARGET_ATOMIC_NUMBER "29.0000000000"
*HW_XG_TARGET_NAME "Cu"
*HW_XG_TYPE "Hermetic"
*HW_XG_VOLTAGE_MAX "40"
*HW_XG_VOLTAGE_MIN "20"
*HW_XG_VOLTAGE_RESOLUTION "1"
*HW_XG_VOLTAGE_UNIT "kV"
*HW_XG_WATT_MAX "1"
*HW_XG_WATT_UNIT "kW"
*HW_XG_WAVE_LENGTH_ALPHA1 "1.540593"
*HW_XG_WAVE_LENGTH_ALPHA2 "1.544414"
*HW_XG_WAVE_LENGTH_BETA "1.392250"
*MEAS_COND_AXIS_NAME-0 "2θ/θ"
*MEAS_COND_AXIS_NAME-1 "Soller(inc.)"
*MEAS_COND_AXIS_NAME-2 "IHS"
*MEAS_COND_AXIS_NAME-3 "DS"
*MEAS_COND_AXIS_NAME-4 "SS"
*MEAS_COND_AXIS_NAME-5 "Soller(rec.)"
*MEAS_COND_AXIS_NAME-6 "RS"
*MEAS_COND_AXIS_NAME-7 "フィルター"
*MEAS_COND_AXIS_NAME-8 "モノクロメータ"
*MEAS_COND_AXIS_NAME-9 "HV"
*MEAS_COND_AXIS_NAME-10 "PHA"
*MEAS_COND_AXIS_NAME_INTERNAL-0 "TwoThetaTheta"
*MEAS_COND_AXIS_NAME_INTERNAL-1 "IncidentSollerSlit"
*MEAS_COND_AXIS_NAME_INTERNAL-2 "IncidentAxdSlit"
*MEAS_COND_AXIS_NAME_INTERNAL-3 "IncidentSlitBox"
*MEAS_COND_AXIS_NAME_INTERNAL-4 "ReceivingSlitBox1"
*MEAS_COND_AXIS_NAME_INTERNAL-5 "ReceivingSollerSlit"
*MEAS_COND_AXIS_NAME_INTERNAL-6 "ReceivingSlitBox2"
*MEAS_COND_AXIS_NAME_INTERNAL-7 "Filter"
*MEAS_COND_AXIS_NAME_INTERNAL-8 "CounterMonochromator"
*MEAS_COND_AXIS_NAME_INTERNAL-9 "HV"
*MEAS_COND_AXIS_NAME_INTERNAL-10 "PHA"
*MEAS_COND_AXIS_NAME_MAGICNO-0 "268632064.0000000000"
*MEAS_COND_AXIS_NAME_MAGICNO-1 "20971521.0000000000"
*MEAS_COND_AXIS_NAME_MAGICNO-2 "22020097.0000000000"
*MEAS_COND_AXIS_NAME_MAGICNO-3 "22020097.0000000000"
*MEAS_COND_AXIS_NAME_MAGICNO-4 "23068673.0000000000"
*MEAS_COND_AXIS_NAME_MAGICNO-5 "20971521.0000000000"
*MEAS_COND_AXIS_NAME_MAGICNO-6 "23068673.0000000000"
*MEAS_COND_AXIS_NAME_MAGICNO-7 "20971521.0000000000"
*MEAS_COND_AXIS_NAME_MAGICNO-8 "20971521.0000000000"
*MEAS_COND_AXIS_NAME_MAGICNO-9 "0.0000000000"
*MEAS_COND_AXIS_NAME_MAGICNO-10 "0.0000000000"
*MEAS_COND_AXIS_OFFSET-0 "0.0000000000"
*MEAS_COND_AXIS_OFFSET-1 "-"
*MEAS_COND_AXIS_OFFSET-2 "-"
*MEAS_COND_AXIS_OFFSET-3 "-"
*MEAS_COND_AXIS_OFFSET-4 "-"
*MEAS_COND_AXIS_OFFSET-5 "-"
*MEAS_COND_AXIS_OFFSET-6 "-"
*MEAS_COND_AXIS_OFFSET-7 "-"
*MEAS_COND_AXIS_OFFSET-8 "-"
*MEAS_COND_AXIS_OFFSET-9 "-"
*MEAS_COND_AXIS_OFFSET-10 "-"
*MEAS_COND_AXIS_POSITION-0 "10.0000000000"
*MEAS_COND_AXIS_POSITION-1 "5.0deg"
*MEAS_COND_AXIS_POSITION-2 "10.0mm"
*MEAS_COND_AXIS_POSITION-3 "1.250deg"
*MEAS_COND_AXIS_POSITION-4 "1.250deg"
*MEAS_COND_AXIS_POSITION-5 "5.0deg"
*MEAS_COND_AXIS_POSITION-6 "0.3mm"
*MEAS_COND_AXIS_POSITION-7 "None"
*MEAS_COND_AXIS_POSITION-8 "Bent"
*MEAS_COND_AXIS_POSITION-9 "641.5000000000"
*MEAS_COND_AXIS_POSITION-10 "566.2500000000"
*MEAS_COND_AXIS_UNIT-0 "deg"
*MEAS_COND_AXIS_UNIT-1 ""
*MEAS_COND_AXIS_UNIT-2 ""
*MEAS_COND_AXIS_UNIT-3 ""
*MEAS_COND_AXIS_UNIT-4 ""
*MEAS_COND_AXIS_UNIT-5 ""
*MEAS_COND_AXIS_UNIT-6 ""
*MEAS_COND_AXIS_UNIT-7 ""
*MEAS_COND_AXIS_UNIT-8 ""
*MEAS_COND_AXIS_UNIT-9 "V"
*MEAS_COND_AXIS_UNIT-10 "mV"
*MEAS_COND_COUNTER_CNTLOSS_CORR "0.0000000000"
*MEAS_COND_COUNTER_PHABASE "566.2500000000"
*MEAS_COND_COUNTER_PHAWINDOW "878.7500000000"
*MEAS_COND_COUNTER_PHA_UNIT "mV"
*MEAS_COND_COUNTER_TAUDIFF "0.2500000000"
*MEAS_COND_COUNTER_TAUINT "0.7500000000"
*MEAS_COND_IRRADIATION_MODE "OFF"
*MEAS_COND_IRRADIATION_WIDTH ""
*MEAS_COND_OPT_ATTR " "
*MEAS_COND_OPT_NAME ""
*MEAS_COND_UNSYMMETRIC_MODE "OFF"
*MEAS_COND_XG_CURRENT "15.0000000000"
*MEAS_COND_XG_VOLTAGE "40.0000000000"
*MEAS_COND_XG_WAVE_TYPE "Ka"
*MEAS_DATA_COUNT "4001.0000000000"
*MEAS_SCAN_AXIS_X "2θ/θ"
*MEAS_SCAN_AXIS_X_INTERNAL "TwoThetaTheta"
*MEAS_SCAN_END_TIME "04/08/21 14:08:20"
*MEAS_SCAN_MODE "CONTINUOUS"
*MEAS_SCAN_MONITOR "0"
*MEAS_SCAN_RESOLUTION_X "0.0025"
*MEAS_SCAN_SPEED "2.0000"
*MEAS_SCAN_SPEED_UNIT "deg/min"
*MEAS_SCAN_START "5.0000000000"
*MEAS_SCAN_START_TIME "04/08/21 13:28:11"
*MEAS_SCAN_STEP "0.0200000000"
*MEAS_SCAN_STOP "85.0000000000"
*MEAS_SCAN_UNIT_X "deg"
*MEAS_SCAN_UNIT_Y "counts"
*SLIT_SYSTEM "0"
*RAS_HEADER_END
*RAS_INT_START
5.0000 31.0000 1.0000
5.0200 22.0000 1.0000
5.0400 19.0000 1.0000
5.0600 23.0000 1.0000
5.0800 18.0000 1.0000
5.1000 27.0000 1.0000
5.1200 29.0000 1.0000
5.1400 23.0000 1.0000
5.1600 20.0000 1.0000
5.1800 20.0000 1.0000
5.2000 23.0000 1.0000
5.2200 32.0000 1.0000
5.2400 31.0000 1.0000
5.2600 24.0000 1.0000
5.2800 33.0000 1.0000
5.3000 19.0000 1.0000
5.3200 26.0000 1.0000
5.3400 21.0000 1.0000
5.3600 20.0000 1.0000
5.3800 23.0000 1.0000
5.4000 23.0000 1.0000
5.4200 28.0000 1.0000
5.4400 27.0000 1.0000
5.4600 19.0000 1.0000
5.4800 14.0000 1.0000
5.5000 20.0000 1.0000
5.5200 33.0000 1.0000
5.5400 18.0000 1.0000
5.5600 26.0000 1.0000
5.5800 31.0000 1.0000
5.6000 31.0000 1.0000
5.6200 20.0000 1.0000
5.6400 28.0000 1.0000
5.6600 19.0000 1.0000
5.6800 25.0000 1.0000
5.7000 34.0000 1.0000
5.7200 29.0000 1.0000
5.7400 28.0000 1.0000
5.7600 24.0000 1.0000
5.7800 15.0000 1.0000
5.8000 35.0000 1.0000
5.8200 31.0000 1.0000
5.8400 17.0000 1.0000
5.8600 21.0000 1.0000
5.8800 19.0000 1.0000
5.9000 25.0000 1.0000
5.9200 27.0000 1.0000
5.9400 25.0000 1.0000
5.9600 24.0000 1.0000
5.9800 28.0000 1.0000
6.0000 15.0000 1.0000
6.0200 27.0000 1.0000
6.0400 30.0000 1.0000
6.0600 29.0000 1.0000
6.0800 26.0000 1.0000
6.1000 27.0000 1.0000
6.1200 29.0000 1.0000
6.1400 21.0000 1.0000
6.1600 24.0000 1.0000
6.1800 18.0000 1.0000
6.2000 32.0000 1.0000
6.2200 21.0000 1.0000
6.2400 16.0000 1.0000
6.2600 23.0000 1.0000
6.2800 28.0000 1.0000
6.3000 29.0000 1.0000
6.3200 27.0000 1.0000
6.3400 23.0000 1.0000
6.3600 28.0000 1.0000
6.3800 8.0000 1.0000
6.4000 31.0000 1.0000
6.4200 25.0000 1.0000
6.4400 22.0000 1.0000
6.4600 27.0000 1.0000
6.4800 18.0000 1.0000
6.5000 31.0000 1.0000
6.5200 29.0000 1.0000
6.5400 24.0000 1.0000
6.5600 32.0000 1.0000
6.5800 26.0000 1.0000
6.6000 29.0000 1.0000
6.6200 35.0000 1.0000
6.6400 20.0000 1.0000
6.6600 26.0000 1.0000
6.6800 18.0000 1.0000
6.7000 26.0000 1.0000
6.7200 14.0000 1.0000
6.7400 24.0000 1.0000
6.7600 22.0000 1.0000
6.7800 24.0000 1.0000
6.8000 17.0000 1.0000
6.8200 22.0000 1.0000
6.8400 21.0000 1.0000
6.8600 28.0000 1.0000
6.8800 23.0000 1.0000
6.9000 23.0000 1.0000
6.9200 33.0000 1.0000
6.9400 29.0000 1.0000
6.9600 27.0000 1.0000
6.9800 24.0000 1.0000
7.0000 21.0000 1.0000
7.0200 33.0000 1.0000
7.0400 25.0000 1.0000
7.0600 23.0000 1.0000
7.0800 30.0000 1.0000
7.1000 19.0000 1.0000
7.1200 32.0000 1.0000
7.1400 36.0000 1.0000
7.1600 31.0000 1.0000
7.1800 32.0000 1.0000
7.2000 23.0000 1.0000
7.2200 31.0000 1.0000
7.2400 23.0000 1.0000
7.2600 20.0000 1.0000
7.2800 43.0000 1.0000
7.3000 23.0000 1.0000
7.3200 18.0000 1.0000
7.3400 32.0000 1.0000
7.3600 28.0000 1.0000
7.3800 21.0000 1.0000
7.4000 22.0000 1.0000
7.4200 26.0000 1.0000
7.4400 25.0000 1.0000
7.4600 27.0000 1.0000
7.4800 31.0000 1.0000
7.5000 34.0000 1.0000
7.5200 36.0000 1.0000
7.5400 30.0000 1.0000
7.5600 22.0000 1.0000
7.5800 29.0000 1.0000
7.6000 26.0000 1.0000
7.6200 21.0000 1.0000
7.6400 25.0000 1.0000
7.6600 25.0000 1.0000
7.6800 30.0000 1.0000
7.7000 29.0000 1.0000
7.7200 23.0000 1.0000
7.7400 31.0000 1.0000
7.7600 22.0000 1.0000
7.7800 19.0000 1.0000
7.8000 26.0000 1.0000
7.8200 25.0000 1.0000
7.8400 37.0000 1.0000
7.8600 30.0000 1.0000
7.8800 34.0000 1.0000
7.9000 24.0000 1.0000
7.9200 29.0000 1.0000
7.9400 19.0000 1.0000
7.9600 24.0000 1.0000
7.9800 23.0000 1.0000
8.0000 36.0000 1.0000
8.0200 20.0000 1.0000
8.0400 26.0000 1.0000
8.0600 21.0000 1.0000
8.0800 16.0000 1.0000
8.1000 24.0000 1.0000
8.1200 28.0000 1.0000
8.1400 36.0000 1.0000
8.1600 26.0000 1.0000
8.1800 28.0000 1.0000
8.2000 28.0000 1.0000
8.2200 34.0000 1.0000
8.2400 31.0000 1.0000
8.2600 30.0000 1.0000
8.2800 25.0000 1.0000
8.3000 27.0000 1.0000
8.3200 39.0000 1.0000
8.3400 28.0000 1.0000
8.3600 28.0000 1.0000
8.3800 29.0000 1.0000
8.4000 24.0000 1.0000
8.4200 17.0000 1.0000
8.4400 29.0000 1.0000
8.4600 25.0000 1.0000
8.4800 28.0000 1.0000
8.5000 30.0000 1.0000
8.5200 22.0000 1.0000
8.5400 23.0000 1.0000
8.5600 26.0000 1.0000
8.5800 26.0000 1.0000
8.6000 34.0000 1.0000
8.6200 26.0000 1.0000
8.6400 23.0000 1.0000
8.6600 41.0000 1.0000
8.6800 23.0000 1.0000
8.7000 27.0000 1.0000
8.7200 23.0000 1.0000
8.7400 34.0000 1.0000
8.7600 23.0000 1.0000
8.7800 26.0000 1.0000
8.8000 30.0000 1.0000
8.8200 23.0000 1.0000
8.8400 23.0000 1.0000
8.8600 32.0000 1.0000
8.8800 30.0000 1.0000
8.9000 23.0000 1.0000
8.9200 32.0000 1.0000
8.9400 30.0000 1.0000
8.9600 21.0000 1.0000
8.9800 39.0000 1.0000
9.0000 33.0000 1.0000
9.0200 31.0000 1.0000
9.0400 48.0000 1.0000
9.0600 24.0000 1.0000
9.0800 33.0000 1.0000
9.1000 33.0000 1.0000
9.1200 28.0000 1.0000
9.1400 26.0000 1.0000
9.1600 23.0000 1.0000
9.1800 25.0000 1.0000
9.2000 34.0000 1.0000
9.2200 26.0000 1.0000
9.2400 28.0000 1.0000
9.2600 23.0000 1.0000
9.2800 30.0000 1.0000
9.3000 25.0000 1.0000
9.3200 19.0000 1.0000
9.3400 37.0000 1.0000
9.3600 34.0000 1.0000
9.3800 26.0000 1.0000
9.4000 17.0000 1.0000
9.4200 21.0000 1.0000
9.4400 35.0000 1.0000
9.4600 30.0000 1.0000
9.4800 28.0000 1.0000
9.5000 27.0000 1.0000
9.5200 28.0000 1.0000
9.5400 35.0000 1.0000
9.5600 30.0000 1.0000
9.5800 42.0000 1.0000
9.6000 37.0000 1.0000
9.6200 23.0000 1.0000
9.6400 30.0000 1.0000
9.6600 36.0000 1.0000
9.6800 30.0000 1.0000
9.7000 27.0000 1.0000
9.7200 25.0000 1.0000
9.7400 16.0000 1.0000
9.7600 31.0000 1.0000
9.7800 30.0000 1.0000
9.8000 27.0000 1.0000
9.8200 34.0000 1.0000
9.8400 27.0000 1.0000
9.8600 32.0000 1.0000
9.8800 27.0000 1.0000
9.9000 34.0000 1.0000
9.9200 29.0000 1.0000
9.9400 31.0000 1.0000
9.9600 34.0000 1.0000
9.9800 30.0000 1.0000
10.0000 37.0000 1.0000
10.0200 36.0000 1.0000
10.0400 27.0000 1.0000
10.0600 36.0000 1.0000
10.0800 38.0000 1.0000
10.1000 34.0000 1.0000
10.1200 32.0000 1.0000
10.1400 29.0000 1.0000
10.1600 40.0000 1.0000
10.1800 33.0000 1.0000
10.2000 27.0000 1.0000
10.2200 33.0000 1.0000
10.2400 27.0000 1.0000
10.2600 27.0000 1.0000
10.2800 29.0000 1.0000
10.3000 28.0000 1.0000
10.3200 28.0000 1.0000
10.3400 24.0000 1.0000
10.3600 22.0000 1.0000
10.3800 29.0000 1.0000
10.4000 34.0000 1.0000
10.4200 27.0000 1.0000
10.4400 27.0000 1.0000
10.4600 26.0000 1.0000
10.4800 31.0000 1.0000
10.5000 33.0000 1.0000
10.5200 30.0000 1.0000
10.5400 25.0000 1.0000
10.5600 32.0000 1.0000
10.5800 21.0000 1.0000
10.6000 28.0000 1.0000
10.6200 38.0000 1.0000
10.6400 19.0000 1.0000
10.6600 32.0000 1.0000
10.6800 36.0000 1.0000
10.7000 35.0000 1.0000
10.7200 26.0000 1.0000
10.7400 37.0000 1.0000
10.7600 29.0000 1.0000
10.7800 38.0000 1.0000
10.8000 34.0000 1.0000
10.8200 38.0000 1.0000
10.8400 25.0000 1.0000
10.8600 23.0000 1.0000
10.8800 33.0000 1.0000
10.9000 32.0000 1.0000
10.9200 32.0000 1.0000
10.9400 30.0000 1.0000
10.9600 34.0000 1.0000
10.9800 39.0000 1.0000
11.0000 26.0000 1.0000
11.0200 26.0000 1.0000
11.0400 37.0000 1.0000
11.0600 35.0000 1.0000
11.0800 38.0000 1.0000
11.1000 32.0000 1.0000
11.1200 36.0000 1.0000
11.1400 24.0000 1.0000
11.1600 34.0000 1.0000
11.1800 38.0000 1.0000
11.2000 33.0000 1.0000
11.2200 36.0000 1.0000
11.2400 28.0000 1.0000
11.2600 25.0000 1.0000
11.2800 38.0000 1.0000
11.3000 32.0000 1.0000
11.3200 18.0000 1.0000
11.3400 43.0000 1.0000
11.3600 28.0000 1.0000
11.3800 32.0000 1.0000
11.4000 30.0000 1.0000
11.4200 42.0000 1.0000
11.4400 37.0000 1.0000
11.4600 28.0000 1.0000
11.4800 31.0000 1.0000
11.5000 35.0000 1.0000
11.5200 33.0000 1.0000
11.5400 40.0000 1.0000
11.5600 36.0000 1.0000
11.5800 31.0000 1.0000
11.6000 35.0000 1.0000
11.6200 23.0000 1.0000
11.6400 41.0000 1.0000
11.6600 35.0000 1.0000
11.6800 30.0000 1.0000
11.7000 48.0000 1.0000
11.7200 27.0000 1.0000
11.7400 36.0000 1.0000
11.7600 32.0000 1.0000
11.7800 23.0000 1.0000
11.8000 41.0000 1.0000
11.8200 25.0000 1.0000
11.8400 37.0000 1.0000
11.8600 25.0000 1.0000
11.8800 36.0000 1.0000
11.9000 37.0000 1.0000
11.9200 33.0000 1.0000
11.9400 38.0000 1.0000
11.9600 39.0000 1.0000
11.9800 24.0000 1.0000
12.0000 38.0000 1.0000
12.0200 26.0000 1.0000
12.0400 47.0000 1.0000
12.0600 39.0000 1.0000
12.0800 29.0000 1.0000
12.1000 34.0000 1.0000
12.1200 23.0000 1.0000
12.1400 41.0000 1.0000
12.1600 30.0000 1.0000
12.1800 39.0000 1.0000
12.2000 25.0000 1.0000
12.2200 30.0000 1.0000
12.2400 29.0000 1.0000
12.2600 30.0000 1.0000
12.2800 44.0000 1.0000
12.3000 28.0000 1.0000
12.3200 29.0000 1.0000
12.3400 29.0000 1.0000
12.3600 34.0000 1.0000
12.3800 31.0000 1.0000
12.4000 33.0000 1.0000
12.4200 32.0000 1.0000
12.4400 26.0000 1.0000
12.4600 36.0000 1.0000
12.4800 31.0000 1.0000
12.5000 37.0000 1.0000
12.5200 32.0000 1.0000
12.5400 33.0000 1.0000
12.5600 33.0000 1.0000
12.5800 21.0000 1.0000
12.6000 38.0000 1.0000
12.6200 34.0000 1.0000
12.6400 28.0000 1.0000
12.6600 26.0000 1.0000
12.6800 32.0000 1.0000
12.7000 33.0000 1.0000
12.7200 35.0000 1.0000
12.7400 30.0000 1.0000
12.7600 39.0000 1.0000
12.7800 45.0000 1.0000
12.8000 51.0000 1.0000
12.8200 46.0000 1.0000
12.8400 36.0000 1.0000
12.8600 38.0000 1.0000
12.8800 33.0000 1.0000
12.9000 42.0000 1.0000
12.9200 27.0000 1.0000
12.9400 33.0000 1.0000
12.9600 32.0000 1.0000
12.9800 38.0000 1.0000
13.0000 32.0000 1.0000
13.0200 37.0000 1.0000
13.0400 40.0000 1.0000
13.0600 35.0000 1.0000
13.0800 43.0000 1.0000
13.1000 26.0000 1.0000
13.1200 37.0000 1.0000
13.1400 40.0000 1.0000
13.1600 35.0000 1.0000
13.1800 41.0000 1.0000
13.2000 44.0000 1.0000
13.2200 44.0000 1.0000
13.2400 44.0000 1.0000
13.2600 45.0000 1.0000
13.2800 38.0000 1.0000
13.3000 51.0000 1.0000
13.3200 53.0000 1.0000
13.3400 50.0000 1.0000
13.3600 62.0000 1.0000
13.3800 63.0000 1.0000
13.4000 66.0000 1.0000
13.4200 78.0000 1.0000
13.4400 71.0000 1.0000
13.4600 75.0000 1.0000
13.4800 76.0000 1.0000
13.5000 68.0000 1.0000
13.5200 65.0000 1.0000
13.5400 64.0000 1.0000
13.5600 53.0000 1.0000
13.5800 44.0000 1.0000
13.6000 48.0000 1.0000
13.6200 41.0000 1.0000
13.6400 51.0000 1.0000
13.6600 36.0000 1.0000
13.6800 32.0000 1.0000
13.7000 44.0000 1.0000
13.7200 45.0000 1.0000
13.7400 44.0000 1.0000
13.7600 47.0000 1.0000
13.7800 44.0000 1.0000
13.8000 45.0000 1.0000
13.8200 36.0000 1.0000
13.8400 32.0000 1.0000
13.8600 37.0000 1.0000
13.8800 41.0000 1.0000
13.9000 40.0000 1.0000
13.9200 36.0000 1.0000
13.9400 19.0000 1.0000
13.9600 28.0000 1.0000
13.9800 38.0000 1.0000
14.0000 29.0000 1.0000
14.0200 23.0000 1.0000
14.0400 31.0000 1.0000
14.0600 54.0000 1.0000
14.0800 35.0000 1.0000
14.1000 38.0000 1.0000
14.1200 35.0000 1.0000
14.1400 25.0000 1.0000
14.1600 40.0000 1.0000
14.1800 40.0000 1.0000
14.2000 41.0000 1.0000
14.2200 56.0000 1.0000
14.2400 41.0000 1.0000
14.2600 35.0000 1.0000
14.2800 44.0000 1.0000
14.3000 40.0000 1.0000
14.3200 37.0000 1.0000
14.3400 35.0000 1.0000
14.3600 34.0000 1.0000
14.3800 54.0000 1.0000
14.4000 29.0000 1.0000
14.4200 35.0000 1.0000
14.4400 38.0000 1.0000
14.4600 32.0000 1.0000
14.4800 39.0000 1.0000
14.5000 41.0000 1.0000
14.5200 34.0000 1.0000
14.5400 37.0000 1.0000
14.5600 32.0000 1.0000
14.5800 30.0000 1.0000
14.6000 37.0000 1.0000
14.6200 30.0000 1.0000
14.6400 36.0000 1.0000
14.6600 40.0000 1.0000
14.6800 36.0000 1.0000
14.7000 42.0000 1.0000
14.7200 32.0000 1.0000
14.7400 50.0000 1.0000
14.7600 37.0000 1.0000
14.7800 45.0000 1.0000
14.8000 38.0000 1.0000
14.8200 45.0000 1.0000
14.8400 34.0000 1.0000
14.8600 42.0000 1.0000
14.8800 47.0000 1.0000
14.9000 37.0000 1.0000
14.9200 33.0000 1.0000
14.9400 37.0000 1.0000
14.9600 33.0000 1.0000
14.9800 30.0000 1.0000
15.0000 46.0000 1.0000
15.0200 30.0000 1.0000
15.0400 37.0000 1.0000
15.0600 41.0000 1.0000
15.0800 45.0000 1.0000
15.1000 38.0000 1.0000
15.1200 45.0000 1.0000
15.1400 49.0000 1.0000
15.1600 35.0000 1.0000
15.1800 34.0000 1.0000
15.2000 32.0000 1.0000
15.2200 44.0000 1.0000
15.2400 37.0000 1.0000
15.2600 42.0000 1.0000
15.2800 41.0000 1.0000
15.3000 43.0000 1.0000
15.3200 42.0000 1.0000
15.3400 33.0000 1.0000
15.3600 35.0000 1.0000
15.3800 32.0000 1.0000
15.4000 30.0000 1.0000
15.4200 35.0000 1.0000
15.4400 37.0000 1.0000
15.4600 36.0000 1.0000
15.4800 33.0000 1.0000
15.5000 41.0000 1.0000
15.5200 40.0000 1.0000
15.5400 41.0000 1.0000
15.5600 42.0000 1.0000
15.5800 53.0000 1.0000
15.6000 39.0000 1.0000
15.6200 47.0000 1.0000
15.6400 35.0000 1.0000
15.6600 42.0000 1.0000
15.6800 45.0000 1.0000
15.7000 32.0000 1.0000
15.7200 34.0000 1.0000
15.7400 27.0000 1.0000
15.7600 46.0000 1.0000
15.7800 31.0000 1.0000
15.8000 39.0000 1.0000
15.8200 39.0000 1.0000
15.8400 45.0000 1.0000
15.8600 32.0000 1.0000
15.8800 39.0000 1.0000
15.9000 38.0000 1.0000
15.9200 40.0000 1.0000
15.9400 34.0000 1.0000
15.9600 31.0000 1.0000
15.9800 53.0000 1.0000
16.0000 38.0000 1.0000
16.0200 35.0000 1.0000
16.0400 41.0000 1.0000
16.0600 38.0000 1.0000
16.0800 47.0000 1.0000
16.1000 44.0000 1.0000
16.1200 28.0000 1.0000
16.1400 40.0000 1.0000
16.1600 52.0000 1.0000
16.1800 37.0000 1.0000
16.2000 50.0000 1.0000
16.2200 32.0000 1.0000
16.2400 34.0000 1.0000
16.2600 45.0000 1.0000
16.2800 41.0000 1.0000
16.3000 51.0000 1.0000
16.3200 37.0000 1.0000
16.3400 41.0000 1.0000
16.3600 43.0000 1.0000
16.3800 42.0000 1.0000
16.4000 36.0000 1.0000
16.4200 37.0000 1.0000
16.4400 37.0000 1.0000
16.4600 35.0000 1.0000
16.4800 40.0000 1.0000
16.5000 48.0000 1.0000
16.5200 34.0000 1.0000
16.5400 36.0000 1.0000
16.5600 46.0000 1.0000
16.5800 50.0000 1.0000
16.6000 46.0000 1.0000
16.6200 35.0000 1.0000
16.6400 44.0000 1.0000
16.6600 36.0000 1.0000
16.6800 44.0000 1.0000
16.7000 45.0000 1.0000
16.7200 43.0000 1.0000
16.7400 44.0000 1.0000
16.7600 42.0000 1.0000
16.7800 46.0000 1.0000
16.8000 46.0000 1.0000
16.8200 37.0000 1.0000
16.8400 40.0000 1.0000
16.8600 47.0000 1.0000
16.8800 41.0000 1.0000
16.9000 51.0000 1.0000
16.9200 36.0000 1.0000
16.9400 43.0000 1.0000
16.9600 45.0000 1.0000
16.9800 47.0000 1.0000
17.0000 42.0000 1.0000
17.0200 37.0000 1.0000
17.0400 45.0000 1.0000
17.0600 42.0000 1.0000
17.0800 46.0000 1.0000
17.1000 59.0000 1.0000
17.1200 45.0000 1.0000
17.1400 49.0000 1.0000
17.1600 51.0000 1.0000
17.1800 38.0000 1.0000
17.2000 55.0000 1.0000
17.2200 53.0000 1.0000
17.2400 37.0000 1.0000
17.2600 45.0000 1.0000
17.2800 42.0000 1.0000
17.3000 56.0000 1.0000
17.3200 45.0000 1.0000
